
Carbon Monoxide (CO) absorption cross-sections
Andrew Lincowski
Virtual Planetary Laboratory
University of Washington
Updated 6/30/2020
======================================
1176.5  1.1821e-18
1177.9  1.1241e-18
1179.2  1.0650e-18
1180.6  1.0834e-18
1182.0  1.1036e-18
1183.4  1.1242e-18
1184.8  1.1451e-18
1186.2  1.1664e-18
1187.6  1.1889e-18
1189.1  1.2119e-18
1190.5  1.2345e-18
1191.9  1.2575e-18
1193.3  1.2809e-18
1194.7  1.3056e-18
1196.2  1.3308e-18
1197.6  1.3556e-18
1199.0  1.3817e-18
1200.5  1.4084e-18
1201.9  1.4356e-18
1203.4  1.4633e-18
1204.8  1.4915e-18
1206.3  1.5203e-18
1207.7  1.5497e-18
1209.2  1.5806e-18
1210.7  1.6111e-18
1212.1  1.6422e-18
1213.6  1.6750e-18
1215.1  1.7074e-18
1216.5  1.7403e-18
1218.0  1.7751e-18
1219.5  1.8105e-18
1221.0  1.8467e-18
1222.5  1.8836e-18
1224.0  1.9212e-18
1225.5  1.9596e-18
1227.0  1.9987e-18
1228.5  2.0386e-18
1230.0  2.0793e-18
1231.5  2.1208e-18
1233.0  2.1646e-18
1234.6  2.2093e-18
1236.1  2.2534e-18
1237.6  2.3000e-18
1239.2  2.3490e-18
1240.7  2.3905e-18
1242.2  2.4356e-18
1243.8  2.4816e-18
1245.3  2.5284e-18
1246.9  2.5761e-18
1248.4  2.6248e-18
1250.0  2.6759e-18
1251.6  2.7264e-18
1253.1  2.7779e-18
1254.7  2.8320e-18
1256.3  2.8872e-18
1257.9  2.9417e-18
1259.4  2.9973e-18
1261.0  3.0557e-18
1262.6  3.1153e-18
1264.2  3.1760e-18
1265.8  3.2379e-18
1267.4  3.3010e-18
1269.0  3.3653e-18
1270.6  3.4330e-18
1272.3  3.5020e-18
1273.9  3.5703e-18
1275.5  3.6399e-18
1277.1  3.7131e-18
1278.8  3.7877e-18
1280.4  3.8639e-18
1282.1  3.9416e-18
1283.7  4.0184e-18
1285.3  4.0992e-18
1287.0  4.1842e-18
1288.7  4.2683e-18
1290.3  4.3541e-18
1292.0  4.4443e-18
1293.7  4.5337e-18
1295.3  4.6249e-18
1297.0  4.7207e-18
1298.7  4.8185e-18
1300.4  4.9184e-18
1302.1  5.0203e-18
1303.8  5.1243e-18
1305.5  5.2305e-18
1307.2  5.3389e-18
1308.9  5.4660e-18
1310.6  5.5393e-18
1312.3  5.6291e-18
1314.1  5.7204e-18
1315.8  5.8104e-18
1317.5  5.9046e-18
1319.3  6.0004e-18
1321.0  6.0976e-18
1322.8  6.1965e-18
1324.5  6.2969e-18
1326.3  6.3990e-18
1328.0  6.5028e-18
1329.8  6.6112e-18
1331.6  6.7184e-18
1333.3  6.8273e-18
1335.1  6.9412e-18
1336.9  7.0569e-18
1338.7  7.1746e-18
1340.5  7.2943e-18
1342.3  7.4160e-18
1344.1  7.5397e-18
1345.9  7.6654e-18
1347.7  7.7933e-18
1349.5  7.9269e-18
1351.4  8.0628e-18
1353.2  8.1973e-18
1355.0  8.3378e-18
1356.9  8.4808e-18
1358.7  8.6222e-18
1360.5  8.7700e-18
1362.4  8.9245e-18
1364.3  9.0775e-18
1366.1  9.2332e-18
1368.0  9.3958e-18
1369.9  9.5569e-18
1371.7  9.7208e-18
1373.6  9.8920e-18
1375.5  1.0066e-17
1377.4  1.0243e-17
1379.3  1.0400e-17
1381.2  1.0452e-17
1383.1  1.0498e-17
1385.0  1.0545e-17
1387.0  1.0593e-17
1388.9  1.0639e-17
1390.8  1.0687e-17
1392.8  1.0735e-17
1394.7  1.0783e-17
1396.6  1.0831e-17
1398.6  1.0881e-17
1400.6  1.0931e-17
1402.5  1.0980e-17
1404.5  1.1031e-17
1406.5  1.1082e-17
1408.5  1.1132e-17
1410.4  1.1182e-17
1412.4  1.1234e-17
1414.4  1.1286e-17
1416.4  1.1338e-17
1418.4  1.1392e-17
1420.5  1.1446e-17
1422.5  1.1499e-17
1424.5  1.1552e-17
1426.5  1.1607e-17
1428.6  1.1662e-17
1430.6  1.1717e-17
1432.7  1.1773e-17
1434.7  1.1829e-17
1436.8  1.1885e-17
1438.8  1.1941e-17
1440.9  1.1999e-17
1443.0  1.2058e-17
1445.1  1.2116e-17
1447.2  1.2175e-17
1449.3  1.2234e-17
1451.4  1.2294e-17
1453.5  1.2354e-17
1455.6  1.2414e-17
1457.7  1.2475e-17
1459.9  1.2510e-17
1462.0  1.2098e-17
1464.1  1.1815e-17
1466.3  1.1539e-17
1468.4  1.1270e-17
1470.6  1.1001e-17
1472.8  1.0744e-17
1474.9  1.0493e-17
1477.1  1.0242e-17
1479.3  9.9977e-18
1481.5  9.7589e-18
1483.7  9.5258e-18
1485.9  9.2982e-18
1488.1  9.0761e-18
1490.3  8.8593e-18
1492.5  8.6430e-18
1494.8  8.4319e-18
1497.0  8.2260e-18
1499.3  8.0251e-18
1501.5  7.8291e-18
1503.8  7.6379e-18
1506.0  7.4513e-18
1508.3  7.2654e-18
1510.6  7.0840e-18
1512.9  6.9072e-18
1515.2  6.7348e-18
1517.5  6.5668e-18
1519.8  6.4029e-18
1522.1  6.2431e-18
1524.4  6.0872e-18
1526.7  5.9321e-18
1529.1  5.7808e-18
1531.4  5.6365e-18
1533.7  5.4928e-18
1536.1  5.3499e-18
1538.5  5.2135e-18
1540.8  5.0806e-18
1543.2  4.9483e-18
1545.6  4.8195e-18
1548.0  4.6530e-18
1550.4  4.4710e-18
1552.8  4.2112e-18
1555.2  3.9665e-18
1557.6  3.7313e-18
1560.1  3.5101e-18
1562.5  3.3061e-18
1564.9  3.1102e-18
1567.4  2.9221e-18
1569.9  2.7489e-18
1572.3  2.5859e-18
1574.8  2.4296e-18
1577.3  2.2827e-18
1579.8  2.1447e-18
1582.3  2.0151e-18
1584.8  1.8932e-18
1587.3  1.7788e-18
1589.8  1.6692e-18
1592.4  1.5663e-18
1594.9  1.4716e-18
1597.4  1.3809e-18
1600.0  1.2942e-18
1602.6  1.2145e-18
1605.1  1.1396e-18
1607.7  1.0681e-18
1610.3  1.0010e-18
1612.9  9.3813e-19
1615.5  8.7922e-19
1618.1  8.2401e-19
1620.7  7.7130e-19
1623.4  7.2197e-19
1626.0  6.7579e-19
1628.7  6.3256e-19
1631.3  5.9210e-19
1634.0  5.5354e-19
1636.7  5.1813e-19
1639.3  4.8499e-19
1642.0  4.5340e-19
1644.7  4.2387e-19
1647.4  3.8410e-19
1650.2  3.7110e-19
1652.9  3.4949e-19
1655.6  3.2878e-19
1658.4  3.0929e-19
1661.1  2.9096e-19
1663.9  2.7341e-19
1666.7  2.5721e-19
1669.4  2.4197e-19
1672.2  2.2737e-19
1675.0  2.1342e-19
1677.9  2.0033e-19
1680.7  1.8825e-19
1683.5  1.7689e-19
1686.3  1.6604e-19
1689.2  1.5585e-19
1692.0  1.4629e-19
1694.9  1.3716e-19
1697.8  1.2860e-19
1700.7  1.2058e-19
1703.6  1.1306e-19
1706.5  1.0600e-19
1709.4  9.9388e-20
1712.3  9.3083e-20
1715.3  8.7178e-20
1718.2  8.1648e-20
1721.2  7.6468e-20
1724.1  7.1617e-20
1727.1  6.7000e-20
1730.1  6.2680e-20
1733.1  5.8638e-20
1736.1  5.4857e-20
1739.1  5.1263e-20
1742.2  4.7905e-20
1745.2  4.4766e-20
1748.3  4.1833e-20
1751.3  3.9093e-20
1754.4  3.6491e-20
1757.5  3.4062e-20
1760.6  3.1795e-20
1763.7  2.9679e-20
1766.8  2.7704e-20
1769.9  2.5860e-20
1773.0  2.4112e-20
1776.2  2.2458e-20
1779.4  2.0940e-20
1782.5  1.9525e-20
1785.7  1.8185e-20
1788.9  1.6937e-20
1792.1  1.5774e-20
1795.3  1.4676e-20
1798.6  1.3653e-20
1801.8  1.2702e-20
1805.1  1.1817e-20
1808.3  1.0994e-20
1811.6  1.0217e-20
1814.9  9.4948e-21
1818.2  8.8236e-21
1821.5  8.1999e-21
1824.8  7.6117e-21
1828.2  7.0658e-21
1831.5  6.5590e-21
1834.9  6.0886e-21
1838.2  5.6519e-21
1841.6  5.2407e-21
1845.0  4.8594e-21
1848.4  4.5009e-21
1851.9  4.1688e-21
1855.3  3.8655e-21
1858.7  3.5803e-21
1862.2  3.3124e-21
1865.7  3.0646e-21
1869.2  2.8354e-21
1872.7  2.6232e-21
1876.2  2.4270e-21
1879.7  2.2454e-21
1883.2  2.0751e-21
1886.8  1.9156e-21
1890.4  1.7704e-21
1893.9  1.6361e-21
1897.5  1.5103e-21
1901.1  1.3927e-21
1904.8  1.2842e-21
1908.4  1.1855e-21
1912.0  1.0932e-21
1915.7  1.0069e-21
1919.4  9.2745e-22
1923.1  8.5426e-22
1926.8  7.8685e-22
1930.5  7.2475e-22
1934.2  6.6682e-22
1938.0  6.1352e-22
1941.7  5.6448e-22
1945.5  5.1878e-22
1949.3  4.8966e-22
1953.1  4.4250e-22
1956.9  4.0931e-22
1960.8  3.7861e-22
1964.6  3.5020e-22
1968.5  3.2361e-22
1972.4  2.9903e-22
1976.3  2.7632e-22
1980.2  2.5533e-22
1984.1  2.3570e-22
1988.1  2.1780e-22
1992.0  0.0000e+00
1996.0  0.0000e+00
2000.0  0.0000e+00
2004.0  0.0000e+00
2008.0  0.0000e+00
2012.1  0.0000e+00
2016.1  0.0000e+00
2020.2  0.0000e+00
2024.3  0.0000e+00
2028.4  0.0000e+00
2032.5  0.0000e+00
2036.7  0.0000e+00
2040.8  0.0000e+00
2045.0  0.0000e+00
2049.2  0.0000e+00
2053.4  0.0000e+00
2057.6  0.0000e+00
2061.9  0.0000e+00
2066.1  0.0000e+00
2070.4  0.0000e+00
2074.7  0.0000e+00
2079.0  0.0000e+00
2083.3  0.0000e+00
2087.7  0.0000e+00
2092.1  0.0000e+00
2096.4  0.0000e+00
2100.8  0.0000e+00
2105.3  0.0000e+00
2109.7  0.0000e+00
2114.2  0.0000e+00
2118.6  0.0000e+00
2123.1  0.0000e+00
2127.7  0.0000e+00
2132.2  0.0000e+00
2136.8  0.0000e+00
2141.3  0.0000e+00
2145.9  0.0000e+00
2150.5  0.0000e+00
2155.2  0.0000e+00
2159.8  0.0000e+00
2164.5  0.0000e+00
2169.2  0.0000e+00
2173.9  0.0000e+00
2178.6  0.0000e+00
2183.4  0.0000e+00
2188.2  0.0000e+00
2193.0  0.0000e+00
2197.8  0.0000e+00
2202.6  0.0000e+00
2207.5  0.0000e+00
2212.4  0.0000e+00
2217.3  0.0000e+00
2222.2  0.0000e+00
2227.2  0.0000e+00
2232.1  0.0000e+00
2237.1  0.0000e+00
2242.2  0.0000e+00
2247.2  0.0000e+00
2252.3  0.0000e+00
2257.3  0.0000e+00
2262.4  0.0000e+00
2267.6  0.0000e+00
2272.7  0.0000e+00
2277.9  0.0000e+00
2283.1  0.0000e+00
2288.3  0.0000e+00
2293.6  0.0000e+00
2298.9  0.0000e+00
2304.1  0.0000e+00
2309.5  0.0000e+00
2314.8  0.0000e+00
2320.2  0.0000e+00
2325.6  0.0000e+00
2331.0  0.0000e+00
2336.4  0.0000e+00
2341.9  0.0000e+00
2347.4  0.0000e+00
2352.9  0.0000e+00
2358.5  0.0000e+00
2364.1  0.0000e+00
2369.7  0.0000e+00
2375.3  0.0000e+00
2381.0  0.0000e+00
2386.6  0.0000e+00
2392.3  0.0000e+00
2398.1  0.0000e+00
2403.8  0.0000e+00
2409.6  0.0000e+00
2415.5  0.0000e+00
2421.3  0.0000e+00
2427.2  0.0000e+00
2433.1  0.0000e+00
2439.0  0.0000e+00
2445.0  0.0000e+00
2451.0  0.0000e+00
2457.0  0.0000e+00
2463.1  0.0000e+00
2469.1  0.0000e+00
2475.2  0.0000e+00
2481.4  0.0000e+00
2487.6  0.0000e+00
2493.8  0.0000e+00
2500.0  0.0000e+00
2506.3  0.0000e+00
2512.6  0.0000e+00
2518.9  0.0000e+00
2525.3  0.0000e+00
2531.6  0.0000e+00
2538.1  0.0000e+00
2544.5  0.0000e+00
2551.0  0.0000e+00
2557.5  0.0000e+00
2564.1  0.0000e+00
2570.7  0.0000e+00
2577.3  0.0000e+00
2584.0  0.0000e+00
2590.7  0.0000e+00
2597.4  0.0000e+00
2604.2  0.0000e+00
2611.0  0.0000e+00
2617.8  0.0000e+00
2624.7  0.0000e+00
2631.6  0.0000e+00
2638.5  0.0000e+00
2645.5  0.0000e+00
2652.5  0.0000e+00
2659.6  0.0000e+00
2666.7  0.0000e+00
2673.8  0.0000e+00
2681.0  0.0000e+00
2688.2  0.0000e+00
2695.4  0.0000e+00
2702.7  0.0000e+00
2710.0  0.0000e+00
2717.4  0.0000e+00
2724.8  0.0000e+00
2732.2  0.0000e+00
2739.7  0.0000e+00
2747.3  0.0000e+00
2754.8  0.0000e+00
2762.4  0.0000e+00
2770.1  0.0000e+00
2777.8  0.0000e+00
2785.5  0.0000e+00
2793.3  0.0000e+00
2801.1  0.0000e+00
2809.0  0.0000e+00
2816.9  0.0000e+00
2824.9  0.0000e+00
2832.9  0.0000e+00
2840.9  0.0000e+00
2849.0  0.0000e+00
2857.1  0.0000e+00
2865.3  0.0000e+00
2873.6  0.0000e+00
2881.8  0.0000e+00
2890.2  0.0000e+00
2898.6  0.0000e+00
2907.0  0.0000e+00
2915.5  0.0000e+00
2924.0  0.0000e+00
2932.6  0.0000e+00
2941.2  0.0000e+00
2949.9  0.0000e+00
2958.6  0.0000e+00
2967.4  0.0000e+00
2976.2  0.0000e+00
2985.1  0.0000e+00
2994.0  0.0000e+00
3003.0  0.0000e+00
3012.0  0.0000e+00
3021.1  0.0000e+00
3030.3  0.0000e+00
3039.5  0.0000e+00
3048.8  0.0000e+00
3058.1  0.0000e+00
3067.5  0.0000e+00
3076.9  0.0000e+00
3086.4  0.0000e+00
3096.0  0.0000e+00
3105.6  0.0000e+00
3115.3  0.0000e+00
3125.0  0.0000e+00
3134.8  0.0000e+00
3144.7  0.0000e+00
3154.6  0.0000e+00
3164.6  0.0000e+00
3174.6  0.0000e+00
3184.7  0.0000e+00
3194.9  0.0000e+00
3205.1  0.0000e+00
3215.4  0.0000e+00
3225.8  0.0000e+00
3236.2  0.0000e+00
3246.8  0.0000e+00
3257.3  0.0000e+00
3268.0  0.0000e+00
3278.7  0.0000e+00
3289.5  0.0000e+00
3300.3  0.0000e+00
3311.3  0.0000e+00
3322.3  0.0000e+00
3333.3  0.0000e+00
3344.5  0.0000e+00
3355.7  0.0000e+00
3367.0  0.0000e+00
3378.4  0.0000e+00
3389.8  0.0000e+00
3401.4  0.0000e+00
3413.0  0.0000e+00
3424.7  0.0000e+00
3436.4  0.0000e+00
3448.3  0.0000e+00
3460.2  0.0000e+00
3472.2  0.0000e+00
3484.3  0.0000e+00
3496.5  0.0000e+00
3508.8  0.0000e+00
3521.1  0.0000e+00
3533.6  0.0000e+00
3546.1  0.0000e+00
3558.7  0.0000e+00
3571.4  0.0000e+00
3584.2  0.0000e+00
3597.1  0.0000e+00
3610.1  0.0000e+00
3623.2  0.0000e+00
3636.4  0.0000e+00
3649.6  0.0000e+00
3663.0  0.0000e+00
3676.5  0.0000e+00
3690.0  0.0000e+00
3703.7  0.0000e+00
3717.5  0.0000e+00
3731.3  0.0000e+00
3745.3  0.0000e+00
3759.4  0.0000e+00
3773.6  0.0000e+00
3787.9  0.0000e+00
3802.3  0.0000e+00
3816.8  0.0000e+00
3831.4  0.0000e+00
3846.2  0.0000e+00
3861.0  0.0000e+00
3876.0  0.0000e+00
3891.1  0.0000e+00
3906.2  0.0000e+00
3921.6  0.0000e+00
3937.0  0.0000e+00
3952.6  0.0000e+00
3968.3  0.0000e+00
3984.1  0.0000e+00
4000.0  0.0000e+00
4016.1  0.0000e+00
4032.3  0.0000e+00
4048.6  0.0000e+00
4065.0  0.0000e+00
4081.6  0.0000e+00
4098.4  0.0000e+00
4115.2  0.0000e+00
4132.2  0.0000e+00
4149.4  0.0000e+00
4166.7  0.0000e+00
4184.1  0.0000e+00
4201.7  0.0000e+00
4219.4  0.0000e+00
4237.3  0.0000e+00
4255.3  0.0000e+00
4273.5  0.0000e+00
4291.8  0.0000e+00
4310.3  0.0000e+00
4329.0  0.0000e+00
4347.8  0.0000e+00
4366.8  0.0000e+00
4386.0  0.0000e+00
4405.3  0.0000e+00
4424.8  0.0000e+00
4444.4  0.0000e+00
4464.3  0.0000e+00
4484.3  0.0000e+00
4504.5  0.0000e+00
4524.9  0.0000e+00
4545.5  0.0000e+00
4566.2  0.0000e+00
4587.2  0.0000e+00
4608.3  0.0000e+00
4629.6  0.0000e+00
4651.2  0.0000e+00
4672.9  0.0000e+00
4694.8  0.0000e+00
4717.0  0.0000e+00
4739.3  0.0000e+00
4761.9  0.0000e+00
4784.7  0.0000e+00
4807.7  0.0000e+00
4830.9  0.0000e+00
4854.4  0.0000e+00
4878.0  0.0000e+00
4902.0  0.0000e+00
4926.1  0.0000e+00
4950.5  0.0000e+00
4975.1  0.0000e+00
5000.0  0.0000e+00
5025.1  0.0000e+00
5050.5  0.0000e+00
5076.1  0.0000e+00
5102.0  0.0000e+00
5128.2  0.0000e+00
5154.6  0.0000e+00
5181.3  0.0000e+00
5208.3  0.0000e+00
5235.6  0.0000e+00
5263.2  0.0000e+00
5291.0  0.0000e+00
5319.1  0.0000e+00
5347.6  0.0000e+00
5376.3  0.0000e+00
5405.4  0.0000e+00
5434.8  0.0000e+00
5464.5  0.0000e+00
5494.5  0.0000e+00
5524.9  0.0000e+00
5555.6  0.0000e+00
5586.6  0.0000e+00
5618.0  0.0000e+00
5649.7  0.0000e+00
5681.8  0.0000e+00
5714.3  0.0000e+00
5747.1  0.0000e+00
5780.3  0.0000e+00
5814.0  0.0000e+00
5848.0  0.0000e+00
5882.4  0.0000e+00
5917.2  0.0000e+00
5952.4  0.0000e+00
5988.0  0.0000e+00
6024.1  0.0000e+00
6060.6  0.0000e+00
6097.6  0.0000e+00
6135.0  0.0000e+00
6172.8  0.0000e+00
6211.2  0.0000e+00
6250.0  0.0000e+00
6289.3  0.0000e+00
6329.1  0.0000e+00
6369.4  0.0000e+00
6410.3  0.0000e+00
6451.6  0.0000e+00
6493.5  0.0000e+00
6535.9  0.0000e+00
6578.9  0.0000e+00
6622.5  0.0000e+00
6666.7  0.0000e+00
6711.4  0.0000e+00
6756.8  0.0000e+00
6802.7  0.0000e+00
6849.3  0.0000e+00
6896.6  0.0000e+00
6944.4  0.0000e+00
6993.0  0.0000e+00
7042.3  0.0000e+00
7092.2  0.0000e+00
7142.9  0.0000e+00
7194.2  0.0000e+00
7246.4  0.0000e+00
7299.3  0.0000e+00
7352.9  0.0000e+00
7407.4  0.0000e+00
7462.7  0.0000e+00
7518.8  0.0000e+00
7575.8  0.0000e+00
7633.6  0.0000e+00
7692.3  0.0000e+00
7751.9  0.0000e+00
7812.5  0.0000e+00
7874.0  0.0000e+00
7936.5  0.0000e+00
8000.0  0.0000e+00
8064.5  0.0000e+00
8130.1  0.0000e+00
8196.7  0.0000e+00
8264.5  0.0000e+00
8333.3  0.0000e+00
8403.4  0.0000e+00
8474.6  0.0000e+00
8547.0  0.0000e+00
8620.7  0.0000e+00
8695.7  0.0000e+00
8771.9  0.0000e+00
8849.6  0.0000e+00
8928.6  0.0000e+00
9009.0  0.0000e+00
9090.9  0.0000e+00
9174.3  0.0000e+00
9259.3  0.0000e+00
9345.8  0.0000e+00
9434.0  0.0000e+00
9523.8  0.0000e+00
9615.4  0.0000e+00
9708.7  0.0000e+00
9803.9  0.0000e+00
9901.0  0.0000e+00
